  INTERATOMIC POTENTIALS USING BS PSEUDOPOT.
  
 FINAL TEMPERATURE=   0.177300E+04
 RC1=     0.108000E+01A.U.
 DENSITY=     0.792000E-01ANSGTROMS
   ********** PR12 --- ANALYTIC VCORR --- ******


              ****  GUNNARSON-LUNDQVIST ***
  *** C1=  1.000     Z1=  1.5     Z2=  1.5  ***

 MAXR=  200  ISTEP=    1  DR=   0.620000E-01ANSGTROMS
  *** DEN=  0.1174E-01     T=1773.0     QF=   0.80479     RS=   2.38468

  DQ=    0.10726      N2QF=    15     MAXQ=   500

     **** SG(0)=   0.15099

                    GAM0=   0.270738E+00


      I          R (A.U.)            V11(R)/KBT            V22(R)            V12(R)


     2         0.326112E+04        0.326112E+04        0.326112E+04
     3         0.155158E+04        0.155158E+04        0.155158E+04
     4         0.982493E+03        0.982493E+03        0.982493E+03
     5         0.698718E+03        0.698718E+03        0.698718E+03
     6         0.529181E+03        0.529181E+03        0.529181E+03
     7         0.416827E+03        0.416827E+03        0.416827E+03
     8         0.337181E+03        0.337181E+03        0.337181E+03
     9         0.277988E+03        0.277988E+03        0.277988E+03
    10         0.232430E+03        0.232430E+03        0.232430E+03
    11         0.196407E+03        0.196407E+03        0.196407E+03
    12         0.167305E+03        0.167305E+03        0.167305E+03
    13         0.143380E+03        0.143380E+03        0.143380E+03
    14         0.123425E+03        0.123425E+03        0.123425E+03
    15         0.106580E+03        0.106580E+03        0.106580E+03
    16         0.922169E+02        0.922169E+02        0.922169E+02
    17         0.798698E+02        0.798698E+02        0.798698E+02
    18         0.691881E+02        0.691881E+02        0.691881E+02
    19         0.599053E+02        0.599053E+02        0.599053E+02
    20         0.518181E+02        0.518181E+02        0.518181E+02
    21         0.447676E+02        0.447676E+02        0.447676E+02
    22         0.386218E+02        0.386218E+02        0.386218E+02
    23         0.332678E+02        0.332678E+02        0.332678E+02
    24         0.286079E+02        0.286079E+02        0.286079E+02
    25         0.245572E+02        0.245572E+02        0.245572E+02
    26         0.210414E+02        0.210414E+02        0.210414E+02
    27         0.179953E+02        0.179953E+02        0.179953E+02
    28         0.153613E+02        0.153613E+02        0.153613E+02
    29         0.130885E+02        0.130885E+02        0.130885E+02
    30         0.111321E+02        0.111321E+02        0.111321E+02
    31         0.945197E+01        0.945197E+01        0.945197E+01
    32         0.801295E+01        0.801295E+01        0.801295E+01
    33         0.678368E+01        0.678368E+01        0.678368E+01
    34         0.573646E+01        0.573646E+01        0.573646E+01
    35         0.484680E+01        0.484680E+01        0.484680E+01
    36         0.409310E+01        0.409310E+01        0.409310E+01
    37         0.345631E+01        0.345631E+01        0.345631E+01
    38         0.291972E+01        0.291972E+01        0.291972E+01
    39         0.246869E+01        0.246869E+01        0.246869E+01
    40         0.209043E+01        0.209043E+01        0.209043E+01
    41         0.177381E+01        0.177381E+01        0.177381E+01
    42         0.150919E+01        0.150919E+01        0.150919E+01
    43         0.128823E+01        0.128823E+01        0.128823E+01
    44         0.110379E+01        0.110379E+01        0.110379E+01
    45         0.949742E+00        0.949742E+00        0.949742E+00
    46         0.820880E+00        0.820880E+00        0.820880E+00
    47         0.712802E+00        0.712802E+00        0.712802E+00
    48         0.621805E+00        0.621805E+00        0.621805E+00
    49         0.544799E+00        0.544799E+00        0.544799E+00
    50         0.479219E+00        0.479219E+00        0.479219E+00
    51         0.422957E+00        0.422957E+00        0.422957E+00
    52         0.374291E+00        0.374291E+00        0.374291E+00
    53         0.331827E+00        0.331827E+00        0.331827E+00
    54         0.294451E+00        0.294451E+00        0.294451E+00
    55         0.261277E+00        0.261277E+00        0.261277E+00
    56         0.231611E+00        0.231611E+00        0.231611E+00
    57         0.204911E+00        0.204911E+00        0.204911E+00
    58         0.180763E+00        0.180763E+00        0.180763E+00
    59         0.158851E+00        0.158851E+00        0.158851E+00
    60         0.138935E+00        0.138935E+00        0.138935E+00
    61         0.120833E+00        0.120833E+00        0.120833E+00
    62         0.104406E+00        0.104406E+00        0.104406E+00
    63         0.895465E-01        0.895465E-01        0.895465E-01
    64         0.761654E-01        0.761654E-01        0.761654E-01
    65         0.641874E-01        0.641874E-01        0.641874E-01
    66         0.535432E-01        0.535432E-01        0.535432E-01
    67         0.441659E-01        0.441659E-01        0.441659E-01
    68         0.359874E-01        0.359874E-01        0.359874E-01
    69         0.289371E-01        0.289371E-01        0.289371E-01
    70         0.229408E-01        0.229408E-01        0.229408E-01
    71         0.179201E-01        0.179201E-01        0.179201E-01
    72         0.137934E-01        0.137934E-01        0.137934E-01
    73         0.104758E-01        0.104758E-01        0.104758E-01
    74         0.788107E-02        0.788107E-02        0.788107E-02
    75         0.592213E-02        0.592213E-02        0.592213E-02
    76         0.451271E-02        0.451271E-02        0.451271E-02
    77         0.356854E-02        0.356854E-02        0.356854E-02
    78         0.300859E-02        0.300859E-02        0.300859E-02
    79         0.275621E-02        0.275621E-02        0.275621E-02
    80         0.274013E-02        0.274013E-02        0.274013E-02
    81         0.289520E-02        0.289520E-02        0.289520E-02
    82         0.316310E-02        0.316310E-02        0.316310E-02
    83         0.349271E-02        0.349271E-02        0.349271E-02
    84         0.384038E-02        0.384038E-02        0.384038E-02
    85         0.416997E-02        0.416997E-02        0.416997E-02
    86         0.445274E-02        0.445274E-02        0.445274E-02
    87         0.466705E-02        0.466705E-02        0.466705E-02
    88         0.479798E-02        0.479798E-02        0.479798E-02
    89         0.483678E-02        0.483678E-02        0.483678E-02
    90         0.478025E-02        0.478025E-02        0.478025E-02
    91         0.463006E-02        0.463006E-02        0.463006E-02
    92         0.439200E-02        0.439200E-02        0.439200E-02
    93         0.407524E-02        0.407524E-02        0.407524E-02
    94         0.369153E-02        0.369153E-02        0.369153E-02
    95         0.325452E-02        0.325452E-02        0.325452E-02
    96         0.277897E-02        0.277897E-02        0.277897E-02
    97         0.228014E-02        0.228014E-02        0.228014E-02
    98         0.177318E-02        0.177318E-02        0.177318E-02
    99         0.127259E-02        0.127259E-02        0.127259E-02
   100         0.791748E-03        0.791748E-03        0.791748E-03
   101         0.342577E-03        0.342577E-03        0.342577E-03
   102        -0.647647E-04       -0.647647E-04       -0.647647E-04
   103        -0.422085E-03       -0.422085E-03       -0.422085E-03
   104        -0.723274E-03       -0.723274E-03       -0.723274E-03
   105        -0.964351E-03       -0.964351E-03       -0.964351E-03
   106        -0.114344E-02       -0.114344E-02       -0.114344E-02
   107        -0.126066E-02       -0.126066E-02       -0.126066E-02
   108        -0.131800E-02       -0.131800E-02       -0.131800E-02
   109        -0.131912E-02       -0.131912E-02       -0.131912E-02
   110        -0.126911E-02       -0.126911E-02       -0.126911E-02
   111        -0.117422E-02       -0.117422E-02       -0.117422E-02
   112        -0.104163E-02       -0.104163E-02       -0.104163E-02
   113        -0.879110E-03       -0.879110E-03       -0.879110E-03
   114        -0.694778E-03       -0.694778E-03       -0.694778E-03
   115        -0.496809E-03       -0.496809E-03       -0.496809E-03
   116        -0.293186E-03       -0.293186E-03       -0.293186E-03
   117        -0.914623E-04       -0.914623E-04       -0.914623E-04
   118         0.101436E-03        0.101436E-03        0.101436E-03
   119         0.279385E-03        0.279385E-03        0.279385E-03
   120         0.437198E-03        0.437198E-03        0.437198E-03
   121         0.570720E-03        0.570720E-03        0.570720E-03
   122         0.676893E-03        0.676893E-03        0.676893E-03
   123         0.753773E-03        0.753773E-03        0.753773E-03
   124         0.800524E-03        0.800524E-03        0.800524E-03
   125         0.817366E-03        0.817366E-03        0.817366E-03
   126         0.805503E-03        0.805503E-03        0.805503E-03
   127         0.767020E-03        0.767020E-03        0.767020E-03
   128         0.704766E-03        0.704766E-03        0.704766E-03
   129         0.622208E-03        0.622208E-03        0.622208E-03
   130         0.523289E-03        0.523289E-03        0.523289E-03
   131         0.412266E-03        0.412266E-03        0.412266E-03
   132         0.293561E-03        0.293561E-03        0.293561E-03
   133         0.171603E-03        0.171603E-03        0.171603E-03
   134         0.506859E-04        0.506859E-04        0.506859E-04
   135        -0.651637E-04       -0.651637E-04       -0.651637E-04
   136        -0.172302E-03       -0.172302E-03       -0.172302E-03
   137        -0.267568E-03       -0.267568E-03       -0.267568E-03
   138        -0.348358E-03       -0.348358E-03       -0.348358E-03
   139        -0.412685E-03       -0.412685E-03       -0.412685E-03
   140        -0.459210E-03       -0.459210E-03       -0.459210E-03
   141        -0.487256E-03       -0.487256E-03       -0.487256E-03
   142        -0.496792E-03       -0.496792E-03       -0.496792E-03
   143        -0.488408E-03       -0.488408E-03       -0.488408E-03
   144        -0.463265E-03       -0.463265E-03       -0.463265E-03
   145        -0.423028E-03       -0.423028E-03       -0.423028E-03
   146        -0.369789E-03       -0.369789E-03       -0.369789E-03
   147        -0.305981E-03       -0.305981E-03       -0.305981E-03
   148        -0.234278E-03       -0.234278E-03       -0.234278E-03
   149        -0.157500E-03       -0.157500E-03       -0.157500E-03
   150        -0.785139E-04       -0.785139E-04       -0.785139E-04
   151        -0.134408E-06       -0.134408E-06       -0.134408E-06
   152         0.749647E-04        0.749647E-04        0.749647E-04
   153         0.144333E-03        0.144333E-03        0.144333E-03
   154         0.205818E-03        0.205818E-03        0.205818E-03
   155         0.257618E-03        0.257618E-03        0.257618E-03
   156         0.298337E-03        0.298337E-03        0.298337E-03
   157         0.327004E-03        0.327004E-03        0.327004E-03
   158         0.343100E-03        0.343100E-03        0.343100E-03
   159         0.346549E-03        0.346549E-03        0.346549E-03
   160         0.337708E-03        0.337708E-03        0.337708E-03
   161         0.317338E-03        0.317338E-03        0.317338E-03
   162         0.286565E-03        0.286565E-03        0.286565E-03
   163         0.246826E-03        0.246826E-03        0.246826E-03
   164         0.199814E-03        0.199814E-03        0.199814E-03
   165         0.147410E-03        0.147410E-03        0.147410E-03
   166         0.916127E-04        0.916127E-04        0.916127E-04
   167         0.344705E-04        0.344705E-04        0.344705E-04
   168        -0.219922E-04       -0.219922E-04       -0.219922E-04
   169        -0.758399E-04       -0.758399E-04       -0.758399E-04
   170        -0.125289E-03       -0.125289E-03       -0.125289E-03
   171        -0.168764E-03       -0.168764E-03       -0.168764E-03
   172        -0.204942E-03       -0.204942E-03       -0.204942E-03
   173        -0.232790E-03       -0.232790E-03       -0.232790E-03
   174        -0.251592E-03       -0.251592E-03       -0.251592E-03
   175        -0.260964E-03       -0.260964E-03       -0.260964E-03
   176        -0.260853E-03       -0.260853E-03       -0.260853E-03
   177        -0.251536E-03       -0.251536E-03       -0.251536E-03
   178        -0.233596E-03       -0.233596E-03       -0.233596E-03
   179        -0.207895E-03       -0.207895E-03       -0.207895E-03
   180        -0.175538E-03       -0.175538E-03       -0.175538E-03
   181        -0.137829E-03       -0.137829E-03       -0.137829E-03
   182        -0.962179E-04       -0.962179E-04       -0.962179E-04
   183        -0.522543E-04       -0.522543E-04       -0.522543E-04
   184        -0.752655E-05       -0.752655E-05       -0.752655E-05
   185         0.363907E-04        0.363907E-04        0.363907E-04
   186         0.779900E-04        0.779900E-04        0.779900E-04
   187         0.115881E-03        0.115881E-03        0.115881E-03
   188         0.148833E-03        0.148833E-03        0.148833E-03
   189         0.175817E-03        0.175817E-03        0.175817E-03
   190         0.196030E-03        0.196030E-03        0.196030E-03
   191         0.208924E-03        0.208924E-03        0.208924E-03
   192         0.214212E-03        0.214212E-03        0.214212E-03
   193         0.211878E-03        0.211878E-03        0.211878E-03
   194         0.202166E-03        0.202166E-03        0.202166E-03
   195         0.185569E-03        0.185569E-03        0.185569E-03
   196         0.162810E-03        0.162810E-03        0.162810E-03
   197         0.134803E-03        0.134803E-03        0.134803E-03
   198         0.102630E-03        0.102630E-03        0.102630E-03
   199         0.674914E-04        0.674914E-04        0.674914E-04
   200         0.306654E-04        0.306654E-04        0.306654E-04
