  INTERATOMIC POTENTIALS USING BS PSEUDOPOT.
  
 FINAL TEMPERATURE=   0.142300E+04
 RC1=     0.810000E+00A.U.
 DENSITY=     0.755000E-01ANSGTROMS
   ********** PR12 --- ANALYTIC VCORR --- ******


              ****  GUNNARSON-LUNDQVIST ***
  *** C1=  1.000     Z1=  1.4     Z2=  1.4  ***

 MAXR=  200  ISTEP=    1  DR=   0.620000E-01ANSGTROMS
  *** DEN=  0.1119E-01     T=1423.0     QF=   0.77405     RS=   2.47939

  DQ=    0.10726      N2QF=    15     MAXQ=   500

     **** SG(0)=   0.14617

                    GAM0=   0.271382E+00


      I          R (A.U.)            V11(R)/KBT            V22(R)            V12(R)


     2         0.351458E+04        0.351458E+04        0.351458E+04
     3         0.165910E+04        0.165910E+04        0.165910E+04
     4         0.104144E+04        0.104144E+04        0.104144E+04
     5         0.733478E+03        0.733478E+03        0.733478E+03
     6         0.549535E+03        0.549535E+03        0.549535E+03
     7         0.427700E+03        0.427700E+03        0.427700E+03
     8         0.341417E+03        0.341417E+03        0.341417E+03
     9         0.277398E+03        0.277398E+03        0.277398E+03
    10         0.228250E+03        0.228250E+03        0.228250E+03
    11         0.189535E+03        0.189535E+03        0.189535E+03
    12         0.158427E+03        0.158427E+03        0.158427E+03
    13         0.133043E+03        0.133043E+03        0.133043E+03
    14         0.112082E+03        0.112082E+03        0.112082E+03
    15         0.946196E+02        0.946196E+02        0.946196E+02
    16         0.799821E+02        0.799821E+02        0.799821E+02
    17         0.676603E+02        0.676603E+02        0.676603E+02
    18         0.572564E+02        0.572564E+02        0.572564E+02
    19         0.484535E+02        0.484535E+02        0.484535E+02
    20         0.409956E+02        0.409956E+02        0.409956E+02
    21         0.346731E+02        0.346731E+02        0.346731E+02
    22         0.293124E+02        0.293124E+02        0.293124E+02
    23         0.247686E+02        0.247686E+02        0.247686E+02
    24         0.209198E+02        0.209198E+02        0.209198E+02
    25         0.176627E+02        0.176627E+02        0.176627E+02
    26         0.149095E+02        0.149095E+02        0.149095E+02
    27         0.125852E+02        0.125852E+02        0.125852E+02
    28         0.106258E+02        0.106258E+02        0.106258E+02
    29         0.897620E+01        0.897620E+01        0.897620E+01
    30         0.758934E+01        0.758934E+01        0.758934E+01
    31         0.642475E+01        0.642475E+01        0.642475E+01
    32         0.544780E+01        0.544780E+01        0.544780E+01
    33         0.462881E+01        0.462881E+01        0.462881E+01
    34         0.394244E+01        0.394244E+01        0.394244E+01
    35         0.336710E+01        0.336710E+01        0.336710E+01
    36         0.288444E+01        0.288444E+01        0.288444E+01
    37         0.247893E+01        0.247893E+01        0.247893E+01
    38         0.213746E+01        0.213746E+01        0.213746E+01
    39         0.184903E+01        0.184903E+01        0.184903E+01
    40         0.160446E+01        0.160446E+01        0.160446E+01
    41         0.139611E+01        0.139611E+01        0.139611E+01
    42         0.121766E+01        0.121766E+01        0.121766E+01
    43         0.106393E+01        0.106393E+01        0.106393E+01
    44         0.930690E+00        0.930690E+00        0.930690E+00
    45         0.814504E+00        0.814504E+00        0.814504E+00
    46         0.712602E+00        0.712602E+00        0.712602E+00
    47         0.622766E+00        0.622766E+00        0.622766E+00
    48         0.543223E+00        0.543223E+00        0.543223E+00
    49         0.472566E+00        0.472566E+00        0.472566E+00
    50         0.409677E+00        0.409677E+00        0.409677E+00
    51         0.353662E+00        0.353662E+00        0.353662E+00
    52         0.303809E+00        0.303809E+00        0.303809E+00
    53         0.259534E+00        0.259534E+00        0.259534E+00
    54         0.220352E+00        0.220352E+00        0.220352E+00
    55         0.185852E+00        0.185852E+00        0.185852E+00
    56         0.155667E+00        0.155667E+00        0.155667E+00
    57         0.129466E+00        0.129466E+00        0.129466E+00
    58         0.106937E+00        0.106937E+00        0.106937E+00
    59         0.877782E-01        0.877782E-01        0.877782E-01
    60         0.716966E-01        0.716966E-01        0.716966E-01
    61         0.584018E-01        0.584018E-01        0.584018E-01
    62         0.476063E-01        0.476063E-01        0.476063E-01
    63         0.390259E-01        0.390259E-01        0.390259E-01
    64         0.323812E-01        0.323812E-01        0.323812E-01
    65         0.274000E-01        0.274000E-01        0.274000E-01
    66         0.238200E-01        0.238200E-01        0.238200E-01
    67         0.213912E-01        0.213912E-01        0.213912E-01
    68         0.198793E-01        0.198793E-01        0.198793E-01
    69         0.190674E-01        0.190674E-01        0.190674E-01
    70         0.187590E-01        0.187590E-01        0.187590E-01
    71         0.187787E-01        0.187787E-01        0.187787E-01
    72         0.189741E-01        0.189741E-01        0.189741E-01
    73         0.192161E-01        0.192161E-01        0.192161E-01
    74         0.193988E-01        0.193988E-01        0.193988E-01
    75         0.194397E-01        0.194397E-01        0.194397E-01
    76         0.192781E-01        0.192781E-01        0.192781E-01
    77         0.188742E-01        0.188742E-01        0.188742E-01
    78         0.182072E-01        0.182072E-01        0.182072E-01
    79         0.172737E-01        0.172737E-01        0.172737E-01
    80         0.160848E-01        0.160848E-01        0.160848E-01
    81         0.146644E-01        0.146644E-01        0.146644E-01
    82         0.130464E-01        0.130464E-01        0.130464E-01
    83         0.112723E-01        0.112723E-01        0.112723E-01
    84         0.938894E-02        0.938894E-02        0.938894E-02
    85         0.744598E-02        0.744598E-02        0.744598E-02
    86         0.549391E-02        0.549391E-02        0.549391E-02
    87         0.358205E-02        0.358205E-02        0.358205E-02
    88         0.175682E-02        0.175682E-02        0.175682E-02
    89         0.603609E-04        0.603609E-04        0.603609E-04
    90        -0.147073E-02       -0.147073E-02       -0.147073E-02
    91        -0.280627E-02       -0.280627E-02       -0.280627E-02
    92        -0.392307E-02       -0.392307E-02       -0.392307E-02
    93        -0.480536E-02       -0.480536E-02       -0.480536E-02
    94        -0.544482E-02       -0.544482E-02       -0.544482E-02
    95        -0.584042E-02       -0.584042E-02       -0.584042E-02
    96        -0.599810E-02       -0.599810E-02       -0.599810E-02
    97        -0.593020E-02       -0.593020E-02       -0.593020E-02
    98        -0.565471E-02       -0.565471E-02       -0.565471E-02
    99        -0.519448E-02       -0.519448E-02       -0.519448E-02
   100        -0.457628E-02       -0.457628E-02       -0.457628E-02
   101        -0.382980E-02       -0.382980E-02       -0.382980E-02
   102        -0.298664E-02       -0.298664E-02       -0.298664E-02
   103        -0.207931E-02       -0.207931E-02       -0.207931E-02
   104        -0.114028E-02       -0.114028E-02       -0.114028E-02
   105        -0.200988E-03       -0.200988E-03       -0.200988E-03
   106         0.708908E-03        0.708908E-03        0.708908E-03
   107         0.156233E-02        0.156233E-02        0.156233E-02
   108         0.233540E-02        0.233540E-02        0.233540E-02
   109         0.300791E-02        0.300791E-02        0.300791E-02
   110         0.356373E-02        0.356373E-02        0.356373E-02
   111         0.399103E-02        0.399103E-02        0.399103E-02
   112         0.428241E-02        0.428241E-02        0.428241E-02
   113         0.443485E-02        0.443485E-02        0.443485E-02
   114         0.444958E-02        0.444958E-02        0.444958E-02
   115         0.433185E-02        0.433185E-02        0.433185E-02
   116         0.409057E-02        0.409057E-02        0.409057E-02
   117         0.373785E-02        0.373785E-02        0.373785E-02
   118         0.328855E-02        0.328855E-02        0.328855E-02
   119         0.275970E-02        0.275970E-02        0.275970E-02
   120         0.216993E-02        0.216993E-02        0.216993E-02
   121         0.153885E-02        0.153885E-02        0.153885E-02
   122         0.886486E-03        0.886486E-03        0.886486E-03
   123         0.232650E-03        0.232650E-03        0.232650E-03
   124        -0.403568E-03       -0.403568E-03       -0.403568E-03
   125        -0.100433E-02       -0.100433E-02       -0.100433E-02
   126        -0.155351E-02       -0.155351E-02       -0.155351E-02
   127        -0.203705E-02       -0.203705E-02       -0.203705E-02
   128        -0.244330E-02       -0.244330E-02       -0.244330E-02
   129        -0.276325E-02       -0.276325E-02       -0.276325E-02
   130        -0.299067E-02       -0.299067E-02       -0.299067E-02
   131        -0.312219E-02       -0.312219E-02       -0.312219E-02
   132        -0.315729E-02       -0.315729E-02       -0.315729E-02
   133        -0.309821E-02       -0.309821E-02       -0.309821E-02
   134        -0.294979E-02       -0.294979E-02       -0.294979E-02
   135        -0.271925E-02       -0.271925E-02       -0.271925E-02
   136        -0.241590E-02       -0.241590E-02       -0.241590E-02
   137        -0.205081E-02       -0.205081E-02       -0.205081E-02
   138        -0.163645E-02       -0.163645E-02       -0.163645E-02
   139        -0.118631E-02       -0.118631E-02       -0.118631E-02
   140        -0.714448E-03       -0.714448E-03       -0.714448E-03
   141        -0.235125E-03       -0.235125E-03       -0.235125E-03
   142         0.237620E-03        0.237620E-03        0.237620E-03
   143         0.690350E-03        0.690350E-03        0.690350E-03
   144         0.111059E-02        0.111059E-02        0.111059E-02
   145         0.148713E-02        0.148713E-02        0.148713E-02
   146         0.181034E-02        0.181034E-02        0.181034E-02
   147         0.207235E-02        0.207235E-02        0.207235E-02
   148         0.226725E-02        0.226725E-02        0.226725E-02
   149         0.239119E-02        0.239119E-02        0.239119E-02
   150         0.244243E-02        0.244243E-02        0.244243E-02
   151         0.242134E-02        0.242134E-02        0.242134E-02
   152         0.233034E-02        0.233034E-02        0.233034E-02
   153         0.217377E-02        0.217377E-02        0.217377E-02
   154         0.195772E-02        0.195772E-02        0.195772E-02
   155         0.168982E-02        0.168982E-02        0.168982E-02
   156         0.137901E-02        0.137901E-02        0.137901E-02
   157         0.103521E-02        0.103521E-02        0.103521E-02
   158         0.669070E-03        0.669070E-03        0.669070E-03
   159         0.291623E-03        0.291623E-03        0.291623E-03
   160        -0.860192E-04       -0.860192E-04       -0.860192E-04
   161        -0.452986E-03       -0.452986E-03       -0.452986E-03
   162        -0.798947E-03       -0.798947E-03       -0.798947E-03
   163        -0.111439E-02       -0.111439E-02       -0.111439E-02
   164        -0.139087E-02       -0.139087E-02       -0.139087E-02
   165        -0.162122E-02       -0.162122E-02       -0.162122E-02
   166        -0.179975E-02       -0.179975E-02       -0.179975E-02
   167        -0.192236E-02       -0.192236E-02       -0.192236E-02
   168        -0.198661E-02       -0.198661E-02       -0.198661E-02
   169        -0.199179E-02       -0.199179E-02       -0.199179E-02
   170        -0.193887E-02       -0.193887E-02       -0.193887E-02
   171        -0.183050E-02       -0.183050E-02       -0.183050E-02
   172        -0.167082E-02       -0.167082E-02       -0.167082E-02
   173        -0.146540E-02       -0.146540E-02       -0.146540E-02
   174        -0.122100E-02       -0.122100E-02       -0.122100E-02
   175        -0.945366E-03       -0.945366E-03       -0.945366E-03
   176        -0.647028E-03       -0.647028E-03       -0.647028E-03
   177        -0.335004E-03       -0.335004E-03       -0.335004E-03
   178        -0.185530E-04       -0.185530E-04       -0.185530E-04
   179         0.293094E-03        0.293094E-03        0.293094E-03
   180         0.590995E-03        0.590995E-03        0.590995E-03
   181         0.866753E-03        0.866753E-03        0.866753E-03
   182         0.111274E-02        0.111274E-02        0.111274E-02
   183         0.132230E-02        0.132230E-02        0.132230E-02
   184         0.148995E-02        0.148995E-02        0.148995E-02
   185         0.161146E-02        0.161146E-02        0.161146E-02
   186         0.168404E-02        0.168404E-02        0.168404E-02
   187         0.170632E-02        0.170632E-02        0.170632E-02
   188         0.167841E-02        0.167841E-02        0.167841E-02
   189         0.160187E-02        0.160187E-02        0.160187E-02
   190         0.147964E-02        0.147964E-02        0.147964E-02
   191         0.131594E-02        0.131594E-02        0.131594E-02
   192         0.111611E-02        0.111611E-02        0.111611E-02
   193         0.886484E-03        0.886484E-03        0.886484E-03
   194         0.634165E-03        0.634165E-03        0.634165E-03
   195         0.366811E-03        0.366811E-03        0.366811E-03
   196         0.924131E-04        0.924131E-04        0.924131E-04
   197        -0.180937E-03       -0.180937E-03       -0.180937E-03
   198        -0.445286E-03       -0.445286E-03       -0.445286E-03
   199        -0.693044E-03       -0.693044E-03       -0.693044E-03
   200        -0.917202E-03       -0.917202E-03       -0.917202E-03
