  INTERATOMIC POTENTIALS USING BS PSEUDOPOT.
  
 FINAL TEMPERATURE=   0.183300E+04
 RC1=     0.185000E+01A.U.
 DENSITY=     0.391000E-01ANSGTROMS
   ********** PR12 --- ANALYTIC VCORR --- ******


              ****  GUNNARSON-LUNDQVIST ***
  *** C1=  1.000     Z1=  1.7     Z2=  1.7  ***

 MAXR=  200  ISTEP=    1  DR=   0.620000E-01ANSGTROMS
  *** DEN=  0.5794E-02     T=1833.0     QF=   0.66316     RS=   2.89397

  DQ=    0.10726      N2QF=    13     MAXQ=   500

     **** SG(0)=   0.13124

                    GAM0=   0.274105E+00


      I          R (A.U.)            V11(R)/KBT            V22(R)            V12(R)


     2         0.410091E+04        0.410091E+04        0.410091E+04
     3         0.197680E+04        0.197680E+04        0.197680E+04
     4         0.126951E+04        0.126951E+04        0.126951E+04
     5         0.916654E+03        0.916654E+03        0.916654E+03
     6         0.705700E+03        0.705700E+03        0.705700E+03
     7         0.565790E+03        0.565790E+03        0.565790E+03
     8         0.466529E+03        0.466529E+03        0.466529E+03
     9         0.392706E+03        0.392706E+03        0.392706E+03
    10         0.335855E+03        0.335855E+03        0.335855E+03
    11         0.290884E+03        0.290884E+03        0.290884E+03
    12         0.254545E+03        0.254545E+03        0.254545E+03
    13         0.224664E+03        0.224664E+03        0.224664E+03
    14         0.199731E+03        0.199731E+03        0.199731E+03
    15         0.178663E+03        0.178663E+03        0.178663E+03
    16         0.160662E+03        0.160662E+03        0.160662E+03
    17         0.145126E+03        0.145126E+03        0.145126E+03
    18         0.131594E+03        0.131594E+03        0.131594E+03
    19         0.119708E+03        0.119708E+03        0.119708E+03
    20         0.109183E+03        0.109183E+03        0.109183E+03
    21         0.997928E+02        0.997928E+02        0.997928E+02
    22         0.913547E+02        0.913547E+02        0.913547E+02
    23         0.837208E+02        0.837208E+02        0.837208E+02
    24         0.767709E+02        0.767709E+02        0.767709E+02
    25         0.704068E+02        0.704068E+02        0.704068E+02
    26         0.645486E+02        0.645486E+02        0.645486E+02
    27         0.591315E+02        0.591315E+02        0.591315E+02
    28         0.541031E+02        0.541031E+02        0.541031E+02
    29         0.494217E+02        0.494217E+02        0.494217E+02
    30         0.450548E+02        0.450548E+02        0.450548E+02
    31         0.409776E+02        0.409776E+02        0.409776E+02
    32         0.371719E+02        0.371719E+02        0.371719E+02
    33         0.336256E+02        0.336256E+02        0.336256E+02
    34         0.303305E+02        0.303305E+02        0.303305E+02
    35         0.272786E+02        0.272786E+02        0.272786E+02
    36         0.244612E+02        0.244612E+02        0.244612E+02
    37         0.218682E+02        0.218682E+02        0.218682E+02
    38         0.194895E+02        0.194895E+02        0.194895E+02
    39         0.173141E+02        0.173141E+02        0.173141E+02
    40         0.153310E+02        0.153310E+02        0.153310E+02
    41         0.135292E+02        0.135292E+02        0.135292E+02
    42         0.118975E+02        0.118975E+02        0.118975E+02
    43         0.104248E+02        0.104248E+02        0.104248E+02
    44         0.910047E+01        0.910047E+01        0.910047E+01
    45         0.791376E+01        0.791376E+01        0.791376E+01
    46         0.685446E+01        0.685446E+01        0.685446E+01
    47         0.591262E+01        0.591262E+01        0.591262E+01
    48         0.507869E+01        0.507869E+01        0.507869E+01
    49         0.434355E+01        0.434355E+01        0.434355E+01
    50         0.369847E+01        0.369847E+01        0.369847E+01
    51         0.313520E+01        0.313520E+01        0.313520E+01
    52         0.264592E+01        0.264592E+01        0.264592E+01
    53         0.222328E+01        0.222328E+01        0.222328E+01
    54         0.186038E+01        0.186038E+01        0.186038E+01
    55         0.155078E+01        0.155078E+01        0.155078E+01
    56         0.128850E+01        0.128850E+01        0.128850E+01
    57         0.106798E+01        0.106798E+01        0.106798E+01
    58         0.884099E+00        0.884099E+00        0.884099E+00
    59         0.732171E+00        0.732171E+00        0.732171E+00
    60         0.607898E+00        0.607898E+00        0.607898E+00
    61         0.507374E+00        0.507374E+00        0.507374E+00
    62         0.427069E+00        0.427069E+00        0.427069E+00
    63         0.363805E+00        0.363805E+00        0.363805E+00
    64         0.314740E+00        0.314740E+00        0.314740E+00
    65         0.277351E+00        0.277351E+00        0.277351E+00
    66         0.249411E+00        0.249411E+00        0.249411E+00
    67         0.228975E+00        0.228975E+00        0.228975E+00
    68         0.214353E+00        0.214353E+00        0.214353E+00
    69         0.204096E+00        0.204096E+00        0.204096E+00
    70         0.196974E+00        0.196974E+00        0.196974E+00
    71         0.191960E+00        0.191960E+00        0.191960E+00
    72         0.188207E+00        0.188207E+00        0.188207E+00
    73         0.185032E+00        0.185032E+00        0.185032E+00
    74         0.181900E+00        0.181900E+00        0.181900E+00
    75         0.178405E+00        0.178405E+00        0.178405E+00
    76         0.174254E+00        0.174254E+00        0.174254E+00
    77         0.169255E+00        0.169255E+00        0.169255E+00
    78         0.163297E+00        0.163297E+00        0.163297E+00
    79         0.156343E+00        0.156343E+00        0.156343E+00
    80         0.148412E+00        0.148412E+00        0.148412E+00
    81         0.139571E+00        0.139571E+00        0.139571E+00
    82         0.129924E+00        0.129924E+00        0.129924E+00
    83         0.119603E+00        0.119603E+00        0.119603E+00
    84         0.108756E+00        0.108756E+00        0.108756E+00
    85         0.975444E-01        0.975444E-01        0.975444E-01
    86         0.861344E-01        0.861344E-01        0.861344E-01
    87         0.746905E-01        0.746905E-01        0.746905E-01
    88         0.633721E-01        0.633721E-01        0.633721E-01
    89         0.523288E-01        0.523288E-01        0.523288E-01
    90         0.416978E-01        0.416978E-01        0.416978E-01
    91         0.316016E-01        0.316016E-01        0.316016E-01
    92         0.221456E-01        0.221456E-01        0.221456E-01
    93         0.134179E-01        0.134179E-01        0.134179E-01
    94         0.548817E-02        0.548817E-02        0.548817E-02
    95        -0.159217E-02       -0.159217E-02       -0.159217E-02
    96        -0.778957E-02       -0.778957E-02       -0.778957E-02
    97        -0.130877E-01       -0.130877E-01       -0.130877E-01
    98        -0.174862E-01       -0.174862E-01       -0.174862E-01
    99        -0.209997E-01       -0.209997E-01       -0.209997E-01
   100        -0.236561E-01       -0.236561E-01       -0.236561E-01
   101        -0.254951E-01       -0.254951E-01       -0.254951E-01
   102        -0.265663E-01       -0.265663E-01       -0.265663E-01
   103        -0.269279E-01       -0.269279E-01       -0.269279E-01
   104        -0.266444E-01       -0.266444E-01       -0.266444E-01
   105        -0.257855E-01       -0.257855E-01       -0.257855E-01
   106        -0.244240E-01       -0.244240E-01       -0.244240E-01
   107        -0.226346E-01       -0.226346E-01       -0.226346E-01
   108        -0.204923E-01       -0.204923E-01       -0.204923E-01
   109        -0.180710E-01       -0.180710E-01       -0.180710E-01
   110        -0.154427E-01       -0.154427E-01       -0.154427E-01
   111        -0.126761E-01       -0.126761E-01       -0.126761E-01
   112        -0.983630E-02       -0.983630E-02       -0.983630E-02
   113        -0.698329E-02       -0.698329E-02       -0.698329E-02
   114        -0.417213E-02       -0.417213E-02       -0.417213E-02
   115        -0.145216E-02       -0.145216E-02       -0.145216E-02
   116         0.113315E-02        0.113315E-02        0.113315E-02
   117         0.354639E-02        0.354639E-02        0.354639E-02
   118         0.575622E-02        0.575622E-02        0.575622E-02
   119         0.773733E-02        0.773733E-02        0.773733E-02
   120         0.947028E-02        0.947028E-02        0.947028E-02
   121         0.109413E-01        0.109413E-01        0.109413E-01
   122         0.121418E-01        0.121418E-01        0.121418E-01
   123         0.130685E-01        0.130685E-01        0.130685E-01
   124         0.137224E-01        0.137224E-01        0.137224E-01
   125         0.141089E-01        0.141089E-01        0.141089E-01
   126         0.142372E-01        0.142372E-01        0.142372E-01
   127         0.141198E-01        0.141198E-01        0.141198E-01
   128         0.137720E-01        0.137720E-01        0.137720E-01
   129         0.132116E-01        0.132116E-01        0.132116E-01
   130         0.124587E-01        0.124587E-01        0.124587E-01
   131         0.115348E-01        0.115348E-01        0.115348E-01
   132         0.104626E-01        0.104626E-01        0.104626E-01
   133         0.926579E-02        0.926579E-02        0.926579E-02
   134         0.796867E-02        0.796867E-02        0.796867E-02
   135         0.659562E-02        0.659562E-02        0.659562E-02
   136         0.517098E-02        0.517098E-02        0.517098E-02
   137         0.371870E-02        0.371870E-02        0.371870E-02
   138         0.226209E-02        0.226209E-02        0.226209E-02
   139         0.823574E-03        0.823574E-03        0.823574E-03
   140        -0.575506E-03       -0.575506E-03       -0.575506E-03
   141        -0.191513E-02       -0.191513E-02       -0.191513E-02
   142        -0.317675E-02       -0.317675E-02       -0.317675E-02
   143        -0.434349E-02       -0.434349E-02       -0.434349E-02
   144        -0.540027E-02       -0.540027E-02       -0.540027E-02
   145        -0.633396E-02       -0.633396E-02       -0.633396E-02
   146        -0.713348E-02       -0.713348E-02       -0.713348E-02
   147        -0.778989E-02       -0.778989E-02       -0.778989E-02
   148        -0.829648E-02       -0.829648E-02       -0.829648E-02
   149        -0.864883E-02       -0.864883E-02       -0.864883E-02
   150        -0.884482E-02       -0.884482E-02       -0.884482E-02
   151        -0.888466E-02       -0.888466E-02       -0.888466E-02
   152        -0.877086E-02       -0.877086E-02       -0.877086E-02
   153        -0.850820E-02       -0.850820E-02       -0.850820E-02
   154        -0.810362E-02       -0.810362E-02       -0.810362E-02
   155        -0.756619E-02       -0.756619E-02       -0.756619E-02
   156        -0.690692E-02       -0.690692E-02       -0.690692E-02
   157        -0.613861E-02       -0.613861E-02       -0.613861E-02
   158        -0.527572E-02       -0.527572E-02       -0.527572E-02
   159        -0.433407E-02       -0.433407E-02       -0.433407E-02
   160        -0.333068E-02       -0.333068E-02       -0.333068E-02
   161        -0.228347E-02       -0.228347E-02       -0.228347E-02
   162        -0.121101E-02       -0.121101E-02       -0.121101E-02
   163        -0.132172E-03       -0.132172E-03       -0.132172E-03
   164         0.934101E-03        0.934101E-03        0.934101E-03
   165         0.196917E-02        0.196917E-02        0.196917E-02
   166         0.295496E-02        0.295496E-02        0.295496E-02
   167         0.387434E-02        0.387434E-02        0.387434E-02
   168         0.471134E-02        0.471134E-02        0.471134E-02
   169         0.545149E-02        0.545149E-02        0.545149E-02
   170         0.608205E-02        0.608205E-02        0.608205E-02
   171         0.659229E-02        0.659229E-02        0.659229E-02
   172         0.697364E-02        0.697364E-02        0.697364E-02
   173         0.721989E-02        0.721989E-02        0.721989E-02
   174         0.732729E-02        0.732729E-02        0.732729E-02
   175         0.729467E-02        0.729467E-02        0.729467E-02
   176         0.712345E-02        0.712345E-02        0.712345E-02
   177         0.681762E-02        0.681762E-02        0.681762E-02
   178         0.638371E-02        0.638371E-02        0.638371E-02
   179         0.583063E-02        0.583063E-02        0.583063E-02
   180         0.516957E-02        0.516957E-02        0.516957E-02
   181         0.441373E-02        0.441373E-02        0.441373E-02
   182         0.357816E-02        0.357816E-02        0.357816E-02
   183         0.267939E-02        0.267939E-02        0.267939E-02
   184         0.173516E-02        0.173516E-02        0.173516E-02
   185         0.764100E-03        0.764100E-03        0.764100E-03
   186        -0.214694E-03       -0.214694E-03       -0.214694E-03
   187        -0.118198E-02       -0.118198E-02       -0.118198E-02
   188        -0.211876E-02       -0.211876E-02       -0.211876E-02
   189        -0.300668E-02       -0.300668E-02       -0.300668E-02
   190        -0.382837E-02       -0.382837E-02       -0.382837E-02
   191        -0.456780E-02       -0.456780E-02       -0.456780E-02
   192        -0.521062E-02       -0.521062E-02       -0.521062E-02
   193        -0.574441E-02       -0.574441E-02       -0.574441E-02
   194        -0.615898E-02       -0.615898E-02       -0.615898E-02
   195        -0.644654E-02       -0.644654E-02       -0.644654E-02
   196        -0.660190E-02       -0.660190E-02       -0.660190E-02
   197        -0.662253E-02       -0.662253E-02       -0.662253E-02
   198        -0.650863E-02       -0.650863E-02       -0.650863E-02
   199        -0.626316E-02       -0.626316E-02       -0.626316E-02
   200        -0.589172E-02       -0.589172E-02       -0.589172E-02
